#   1 X_IMAGE                Object position along x                                    [pixel]
#   2 Y_IMAGE                Object position along y                                    [pixel]
#   3 ALPHA_J2000            Right ascension of barycenter (J2000)                      [deg]
#   4 DELTA_J2000            Declination of barycenter (J2000)                          [deg]
#   5 MAG_APER               Fixed aperture magnitude vector                            [mag]
#   6 MAGERR_APER            RMS error vector for fixed aperture mag.                   [mag]
#   7 ELLIPTICITY            1 - B_IMAGE/A_IMAGE                                       
#   8 FWHM_IMAGE             FWHM assuming a gaussian core                              [pixel]
#   9 FLAGS                  Extraction flags                                          
   915.396     63.788 239.9999211 +19.9497697  17.3674   0.0734    0.250     6.40   0
   908.168   1165.812 240.0005947 +20.0468901  16.2191   0.0387    0.230     8.12   0
   577.835   1154.660 240.0315841 +20.0459058  17.0995   0.0823    0.787     4.11   0
   580.250   1134.320 240.0313573 +20.0441132  17.0283   0.0785    0.366     4.23   0
   597.387   1123.322 240.0297495 +20.0431442  17.0381   0.0792    0.284     2.57   0
   800.747   1114.239 240.0106721 +20.0423452  15.2872   0.0188    0.124     7.24   0
   888.775   1108.176 240.0024142 +20.0418108  18.0936   0.1927    0.155     2.31   0
   681.626   1103.343 240.0218468 +20.0413843  16.5175   0.0516    0.246     2.68   0
   580.805   1102.690 240.0313048 +20.0413257  16.9192   0.0701    0.378     8.52   0
   670.797   1099.092 240.0228626 +20.0410096  16.9972   0.0642    0.025     1.32   0
   236.276   1086.898 240.0636244 +20.0399267  17.3808   0.0928    0.330     6.21   0
   358.482   1075.321 240.0521601 +20.0389097  17.6376   0.0934    0.319     4.80   0
   609.811   1070.520 240.0285833 +20.0384910  17.6506   0.0949    0.351     4.07   0
   672.964   1068.996 240.0226591 +20.0383573  18.6661   0.2372    0.006     1.48   0
   947.605   1064.754 239.9968957 +20.0379838  16.3194   0.0291    0.224     6.11   0
  1497.104   1062.590 239.9453485 +20.0377827  17.1265   0.0854    0.106     1.45   0
   136.948   1060.004 240.0729413 +20.0375534  17.1931   0.0642    0.030     1.41   0
   627.211   1059.601 240.0269510 +20.0375289  17.7470   0.1032    0.197     3.06   0
   524.169   1057.588 240.0366170 +20.0373502  16.9695   0.0517    0.067     5.30   0
   298.878   1042.186 240.0577505 +20.0359880  15.2583   0.0126    0.139     5.43   0
   874.687   1040.822 240.0037360 +20.0358749  17.7042   0.0771    0.131     7.30   0
  1312.430   1038.750 239.9626729 +20.0356869  16.2834   0.0414    0.042     1.66   0
  1182.947   1031.621 239.9748194 +20.0350612  17.7082   0.1300    0.361     3.69   0
  1226.376   1029.657 239.9707455 +20.0348873  17.5541   0.0978    0.141     5.83   0
  1200.624   1020.763 239.9731613 +20.0341039  17.7953   0.1090    0.175     2.66   0
  1256.185    996.397 239.9679500 +20.0319555  17.6517   0.0886    0.425     3.45   0
  1444.221    993.764 239.9503115 +20.0317187  17.3259   0.0633    0.105     5.86   0
   671.670    988.449 240.0227798 +20.0312587  16.3085   0.0191    0.281    11.03   0
  1295.946    980.644 239.9642206 +20.0305664  13.8854   0.0041    0.126     5.39   0
  1003.233    965.216 239.9916781 +20.0292112  18.0561   0.0879    0.258     6.55   0
   935.440    947.529 239.9980373 +20.0276529  15.6014   0.0089    0.235    15.56   0
   251.962    956.863 240.0621489 +20.0284673  15.0802   0.0075    0.050     4.90   0
   888.704    953.950 240.0024213 +20.0282190  16.5608   0.0190    0.171     6.66   0
  1261.660    952.998 239.9674374 +20.0281307  16.7713   0.0328    0.277     6.27   0
   691.633    943.150 240.0209068 +20.0272667  15.8964   0.0115    0.187     5.72   0
   314.807    938.579 240.0562534 +20.0268577  17.7188   0.0662    0.197     7.22   0
  1554.923    924.583 239.9399299 +20.0256183  17.7265   0.0789    0.195     6.48   0
   595.692    919.594 240.0299059 +20.0251899  17.9619   0.0822    0.207     4.45   0
   254.483    907.266 240.0619109 +20.0240964  12.5249   0.0016    0.118     4.96   0
   133.888    910.088 240.0732227 +20.0243413  16.6054   0.0252    0.412    10.70   0
   501.504    901.338 240.0387405 +20.0235796  13.5294   0.0028    0.083     4.68   2
   518.614    891.855 240.0371353 +20.0227442  14.0632   0.0038    0.052     4.70   2
   616.020    898.439 240.0279989 +20.0233257  17.9234   0.0789    0.151     6.92   0
   465.506    893.368 240.0421168 +20.0228766  16.7389   0.0282    0.309    10.07   0
   730.859    879.767 240.0172270 +20.0216811  17.5079   0.0433    0.097     9.34   0
   531.439    878.842 240.0359322 +20.0215975  17.2118   0.0424    0.315    14.47   0
  1249.939    873.119 239.9685385 +20.0210913  17.8032   0.0813    0.088     4.06   0
   576.349    870.115 240.0317196 +20.0208291  15.9649   0.0147    0.126     4.98   0
  1205.376    871.599 239.9727184 +20.0209582  18.0240   0.0990    0.126     5.82   0
  1568.998    867.835 239.9386118 +20.0206166  16.2227   0.0215    0.099     4.94   0
  1112.801    864.133 239.9814019 +20.0203017  16.3981   0.0239    0.066     5.69   0
   956.346    864.378 239.9960769 +20.0203248  18.4130   0.0973    0.158     5.80   0
  1533.582    854.791 239.9419342 +20.0194683  16.3143   0.0226    0.135     5.94   0
   592.623    844.142 240.0301928 +20.0185403  13.6584   0.0030    0.091     4.72   0
   301.564    830.363 240.0574926 +20.0173203  13.3122   0.0025    0.084     4.87   0
  1497.714    823.018 239.9452996 +20.0166694  15.5205   0.0118    0.084     4.86   0
   580.498    824.417 240.0313298 +20.0168018  16.5737   0.0243    0.150     5.68   0
   850.455    824.130 240.0060092 +20.0167781  18.4272   0.0985    0.319     5.90   0
  1594.717    821.210 239.9362012 +20.0165066  16.4960   0.0347    0.090     5.42   0
   792.440    821.794 240.0114507 +20.0165722  15.7494   0.0098    0.022     5.27   0
  1044.284    798.381 239.9878293 +20.0145079  16.1909   0.0200    0.091     5.54   0
  1175.805    789.479 239.9754936 +20.0137216  17.0631   0.0423    0.130    11.52   0
   521.337    786.896 240.0368781 +20.0134943  16.9268   0.0331    0.225     6.85   0
   754.766    779.053 240.0149841 +20.0128053  17.4132   0.0397    0.137     5.60   0
  1390.987    773.140 239.9553115 +20.0122769  17.0821   0.0431    0.172     8.65   0
   301.340    773.667 240.0575119 +20.0123238  17.4957   0.0543    0.143     7.53   0
    60.584    768.841 240.0800928 +20.0118907  17.8248   0.1099    0.153     1.25   0
   744.699    759.237 240.0159283 +20.0110590  18.3764   0.0940    0.113     5.67   0
   552.792    752.180 240.0339274 +20.0104352  17.3228   0.0465    0.127     5.01   0
    61.499    749.745 240.0800063 +20.0102077  18.2829   0.1713    0.016     1.60   0
  1057.185    748.005 239.9866198 +20.0100681  18.0019   0.0970    0.197     5.04   0
  1378.797    734.227 239.9564559 +20.0088478  16.0426   0.0178    0.220     5.46   0
   222.186    741.180 240.0649350 +20.0094584  18.2154   0.1033    0.596     5.87   0
  1057.601    737.159 239.9865810 +20.0091123  17.7666   0.0787    0.218     5.38   0
  1351.661    734.089 239.9590010 +20.0088364  16.5314   0.0268    0.061     5.32   0
  1604.142    720.996 239.9353213 +20.0076745  16.7637   0.0447    0.044     1.37   0
   524.648    712.031 240.0365664 +20.0068965  17.7807   0.0700    0.154     8.22   0
   586.012    703.449 240.0308110 +20.0061411  17.4245   0.0510    0.244     8.19   0
   305.468    701.947 240.0571228 +20.0060033  16.2854   0.0191    0.075     4.62   0
   801.009    698.272 240.0106468 +20.0056863  18.0840   0.0722    0.316     7.00   0
   378.677    698.006 240.0502566 +20.0056577  17.5986   0.0593    0.195     9.76   0
  1588.063    691.544 239.9368304 +20.0050795  16.2876   0.0290    0.048     4.60   0
  1465.950    690.209 239.9482833 +20.0049661  17.6254   0.0693    0.062     7.78   0
   120.799    683.958 240.0744419 +20.0044122  15.1803   0.0095    0.015     5.05   0
  1149.095    686.595 239.9780005 +20.0046549  17.4093   0.0572    0.232    10.35   0
   634.259    680.669 240.0262858 +20.0041340  14.6778   0.0055    0.118     4.68   0
  1009.834    672.547 239.9910616 +20.0034186  16.9022   0.0295    0.410    13.19   0
   974.170    677.140 239.9944064 +20.0038236  17.2839   0.0365    0.100     6.31   0
  1325.667    671.399 239.9614406 +20.0033122  14.5683   0.0060    0.056     5.02   0
   170.986    656.723 240.0697341 +20.0020138  16.6463   0.0259    0.069     5.95   0
   680.059    643.670 240.0219899 +20.0008737  16.4874   0.0196    0.191     5.98   0
  1595.738    639.860 239.9361127 +20.0005245  16.9709   0.0523    0.047     4.60   0
  1378.040    642.296 239.9565295 +20.0007461  18.3556   0.1335    0.078     4.24   0
   992.371    634.734 239.9926997 +20.0000863  16.4076   0.0188    0.082     5.54   0
  1587.686    626.103 239.9368685 +19.9993123  17.8984   0.1139    0.262     4.82   0
  1064.870    623.410 239.9859005 +19.9990876  16.9960   0.0398    0.071     5.47   0
   464.335    613.196 240.0422212 +19.9981853  16.7264   0.0278    0.038     7.77   0
   791.229    597.965 240.0115637 +19.9968464  15.6911   0.0093    0.044     5.05   0
  1543.622    558.659 239.9410035 +19.9933701  11.6825   0.0012    0.052     5.06   0
   927.976    559.639 239.9987393 +19.9934686  13.6222   0.0023    0.033     5.15   0
  1231.261    565.872 239.9702968 +19.9940143  17.1344   0.0451    0.386    11.61   0
  1265.167    564.421 239.9671171 +19.9938858  17.0703   0.0425    0.195     5.62   0
   597.311    560.680 240.0297495 +19.9935591  16.9930   0.0352    0.534    13.31   0
   996.664    559.995 239.9922977 +19.9934996  17.5638   0.0511    0.113     8.00   0
  1391.321    542.283 239.9552868 +19.9919316  17.1880   0.0473    0.389    12.52   0
   514.609    534.720 240.0375050 +19.9912701  16.7200   0.0276    0.185     6.68   0
   635.398    523.423 240.0261772 +19.9902761  16.1596   0.0167    0.120     5.62   2
   642.707    517.746 240.0254918 +19.9897759  15.1509   0.0078    0.161     9.58   2
   575.601    529.202 240.0317850 +19.9907847  18.5532   0.1400    0.405     3.43   0
   102.125    529.114 240.0761873 +19.9907653  18.0308   0.1097    0.225     3.62   0
   259.563    515.669 240.0614225 +19.9895855  15.4903   0.0102    0.106     4.86   0
   451.574    511.742 240.0434158 +19.9892440  17.1107   0.0386    0.097     5.63   0
   687.145    503.916 240.0213243 +19.9885574  16.5543   0.0208    0.077     6.87   0
   845.329    503.569 240.0064901 +19.9885274  17.5421   0.0446    0.170     9.93   0
   554.394    502.485 240.0337734 +19.9884299  16.7052   0.0273    0.341     8.79   0
   700.094    500.723 240.0201100 +19.9882761  18.0131   0.0739    0.538     7.95   0
   456.512    488.104 240.0429523 +19.9871609  15.6639   0.0117    0.148     6.33   0
   920.949    485.877 239.9993987 +19.9869681  17.5397   0.0445    0.093    10.30   0
   329.110    483.607 240.0548996 +19.9867617  16.4434   0.0219    0.025     5.26   0
  1342.942    485.779 239.9598253 +19.9869533  17.8363   0.0837    0.254     5.73   0
   761.706    483.479 240.0143320 +19.9867568  17.9556   0.0645    0.265     8.83   0
  1375.043    477.572 239.9568153 +19.9862292  16.5999   0.0284    0.073     5.03   0
   716.327    469.170 240.0185874 +19.9854955  17.8791   0.0601    0.271     9.85   0
  1551.430    460.410 239.9402749 +19.9847113  16.4919   0.0266    0.274     8.47   0
   746.981    459.204 240.0157128 +19.9846174  17.5168   0.0436    0.164     9.97   0
  1382.789    453.175 239.9560896 +19.9840789  14.7127   0.0066    0.038     5.17   0
   655.330    449.592 240.0243073 +19.9837696  13.9110   0.0034    0.110     4.71   0
  1117.226    453.058 239.9809928 +19.9840740  17.4299   0.0582    0.190     6.57   0
  1101.902    445.437 239.9824300 +19.9834025  16.6685   0.0300    0.067     5.10   0
  1257.718    422.777 239.9678188 +19.9814029  11.7422   0.0013    0.112     5.14   0
   823.394    433.210 240.0085470 +19.9823267  18.6770   0.1233    0.408     3.44   0
   782.283    429.999 240.0124023 +19.9820437  18.6738   0.1232    0.072     4.25   0
   278.438    424.256 240.0596497 +19.9815299  15.6823   0.0118    0.069     5.05   0
  1630.747    425.525 239.9328383 +19.9816339  17.0808   0.0814    0.872     8.34   0
   537.684    413.402 240.0353391 +19.9805789  15.7998   0.0130    0.144     6.60   0
  1607.361    414.889 239.9350317 +19.9806975  16.8632   0.0478    0.189    12.62   0
   798.972    403.713 240.0108371 +19.9797271  18.0675   0.0712    0.211     7.18   0
   352.883    405.137 240.0526683 +19.9798469  17.9422   0.0811    0.337     5.60   2
  1232.584    396.199 239.9701762 +19.9790612  16.6732   0.0303    0.373    14.16   0
   601.532    374.996 240.0293514 +19.9771950  16.4137   0.0213    0.088     5.02   0
  1002.099    374.009 239.9917897 +19.9771087  16.9671   0.0303    0.040     7.65   0
   529.860    371.816 240.0360721 +19.9769138  17.4351   0.0514    0.058     5.73   0
   900.868    369.115 240.0012822 +19.9766780  18.5568   0.1109    0.218     4.18   0
   774.172    353.662 240.0131626 +19.9753161  13.6252   0.0023    0.064     5.03   0
   128.333    353.848 240.0737230 +19.9753202  17.3905   0.0583    0.133    10.09   0
   557.446    348.799 240.0334849 +19.9748857  16.4335   0.0217    0.123     7.31   0
  1374.896    341.255 239.9568329 +19.9742157  16.8841   0.0363    0.171     8.24   0
  1359.979    337.563 239.9582317 +19.9738907  18.0228   0.0990    0.390     5.04   0
   797.715    326.907 240.0109549 +19.9729583  18.0297   0.0689    0.268     5.67   0
   512.343    325.938 240.0377139 +19.9728703  18.0797   0.0917    0.163     6.22   0
   817.367    306.546 240.0091121 +19.9711639  12.2678   0.0011    0.094     5.06   0
   424.206    315.144 240.0459781 +19.9719174  14.8161   0.0062    0.117     4.77   0
  1568.210    293.251 239.9387077 +19.9699792   9.9579   0.0006    0.052     4.70   0
  1454.395    317.784 239.9493791 +19.9721450  18.2055   0.1166    0.412     3.45   0
   915.007    313.500 239.9999566 +19.9717766  18.6821   0.1240    0.141     4.30   0
   295.506    295.943 240.0580456 +19.9702223  12.1436   0.0013    0.151     5.13   0
  1279.835    293.198 239.9657478 +19.9699828  17.4748   0.0606    0.406    10.20   0
   718.962    278.826 240.0183392 +19.9687207  18.0446   0.0698    0.171     8.42   0
   300.430    275.384 240.0575833 +19.9684105  17.3200   0.0466    0.292     8.70   0
   743.291    273.234 240.0160579 +19.9682279  17.2115   0.0333    0.201     9.43   0
  1286.693    274.151 239.9651052 +19.9683040  17.3624   0.0549    0.145     5.26   0
   481.772    260.067 240.0405793 +19.9670647  14.7295   0.0059    0.152     4.78   0
  1205.442    248.323 239.9727243 +19.9660295  16.1174   0.0190    0.043     4.94   0
   863.881    242.203 240.0047506 +19.9654934  15.0330   0.0058    0.034     4.74   0
  1430.489    236.574 239.9516232 +19.9649887  15.8220   0.0150    0.095     5.22   0
  1305.933    235.883 239.9633021 +19.9649311  17.9728   0.0946    0.181     4.96   0
  1153.207    230.845 239.9776224 +19.9644900  17.9621   0.0936    0.245     5.84   0
   587.787    218.296 240.0306382 +19.9633850  13.9548   0.0040    0.088     4.65   0
   655.829    212.298 240.0242583 +19.9628572  18.0184   0.0865    0.286     6.96   0
  1609.844    208.134 239.9348073 +19.9624763  15.4305   0.0154    0.027     1.38   0
  1066.116    197.851 239.9857887 +19.9615835  16.7289   0.0316    0.131     4.92   0
  1274.819    189.541 239.9662206 +19.9608477  14.9085   0.0076    0.028     5.06   0
   924.517    188.811 239.9990654 +19.9607879  16.3655   0.0174    0.057     5.35   0
   594.846    180.300 240.0299759 +19.9600365  16.1444   0.0199    0.366    13.64   2
   583.526    166.649 240.0310370 +19.9588334  12.2352   0.0016    0.154     4.75   2
   279.742    178.764 240.0595203 +19.9598949  16.5368   0.0269    0.171     7.64   0
  1183.077    174.981 239.9748226 +19.9595663  15.7429   0.0141    0.076     4.74   0
  1315.457    176.600 239.9624106 +19.9597064  17.4023   0.0568    0.202     7.81   0
  1106.573    177.735 239.9819957 +19.9598102  18.0571   0.1020    0.529     3.43   0
   738.980    172.681 240.0164616 +19.9593663  18.2300   0.0907    0.386     4.89   0
   803.506    169.289 240.0104116 +19.9590676  17.4832   0.0466    0.107     8.61   0
   608.511    167.342 240.0286944 +19.9588947  17.5589   0.0678    0.214     8.71   0
   554.362    160.749 240.0337714 +19.9583130  16.7922   0.0346    0.164     6.33   0
   194.138    157.414 240.0675459 +19.9580108  15.3952   0.0111    0.130     4.85   0
  1301.128    150.676 239.9637547 +19.9574219  17.2180   0.0484    0.133     7.49   0
   729.610    137.205 240.0173399 +19.9562398  18.4718   0.1149    0.421     3.45   0
   315.697    132.317 240.0561478 +19.9558026  16.0407   0.0185    0.115     5.01   0
  1120.825    113.505 239.9806604 +19.9541495  18.1140   0.1194    0.336     5.37   0
   848.959    103.496 240.0061499 +19.9532694  16.0286   0.0169    0.065     6.13   0
   464.294    104.474 240.0422151 +19.9533521  17.2355   0.0612    0.220     9.94   0
  1533.431     97.332 239.9419760 +19.9527142  13.6491   0.0045    0.201     8.22   0
  1476.356     98.562 239.9473272 +19.9528245  15.1568   0.0120    0.112     5.24   0
   364.564     93.423 240.0515652 +19.9523761  15.5511   0.0158    0.158     5.08   0
  1013.381     80.605 239.9907343 +19.9512512  17.7334   0.1018    0.164     3.72   0
  1004.120     77.611 239.9916027 +19.9509874  17.5876   0.0895    0.218     4.61   0
